LabVIEW Measurement	
Writer_Version	2
Reader_Version	2
Separator	Tab
Decimal_Separator	.
Multi_Headings	No
X_Columns	No
Time_Pref	Relative
Operator	szc0199
Date	2024/09/16
Time	17:24:55.1298270225524902344
***End_of_Header***	
	
Channels	2		
Samples	250	250	
Date	2024/09/16	2024/09/16	
Time	17:24:55.1298270225524902344	17:24:55.1298270225524902344	
X_Dimension	Time	Time	
X0	0.0000000000000000E+0	0.0000000000000000E+0	
Delta_X	1.000000	1.000000	
***End_of_Header***			
X_Value	Untitled	Untitled 1	Comment
	-75.006363	1.303491E-8
	-74.504715	1.252843E-8
	-74.006088	1.252857E-8
	-73.508293	9.996427E-9
	-73.006729	1.252857E-8
	-72.508614	1.252869E-8
	-72.006813	1.556714E-8
	-71.508690	1.455430E-8
	-71.006882	1.354150E-8
	-70.508492	1.404780E-8
	-70.006920	1.657989E-8
	-69.508469	1.708656E-8
	-69.010269	1.759281E-8
	-68.508476	1.151577E-8
	-68.010033	1.202224E-8
	-67.508522	1.354155E-8
	-67.010155	1.455430E-8
	-66.508644	1.809917E-8
	-66.010002	1.252852E-8
	-65.507812	1.506075E-8
	-65.009300	1.657983E-8
	-64.507401	1.809903E-8
	-64.008774	1.759273E-8
	-63.509945	1.455419E-8
	-63.007763	1.759258E-8
	-62.509197	1.556700E-8
	-62.007206	1.759281E-8
	-61.508698	1.759264E-8
	-61.006702	1.911187E-8
	-60.508068	1.455430E-8
	-60.006348	1.961837E-8
	-59.507805	1.759292E-8
	-59.005939	1.404771E-8
	-58.507267	1.556705E-8
	-58.008812	1.303482E-8
	-57.506535	1.708634E-8
	-57.007835	1.506061E-8
	-56.505871	1.404794E-8
	-56.007309	1.556705E-8
	-55.505421	8.983307E-9
	-55.006413	1.556694E-8
	-54.504505	1.809923E-8
	-54.005913	1.404780E-8
	-53.507076	1.506064E-8
	-53.005394	1.354144E-8
	-52.506950	1.759295E-8
	-52.005089	1.657983E-8
	-51.506905	1.455419E-8
	-51.005299	1.202201E-8
	-50.507076	1.252835E-8
	-50.005375	6.957777E-9
	-49.506714	1.202207E-8
	-49.005024	1.202216E-8
	-48.506718	1.404771E-8
	-48.008587	1.556685E-8
	-47.506908	1.303488E-8
	-47.008488	1.455419E-8
	-46.507133	1.708625E-8
	-46.008801	1.050270E-8
	-45.507236	1.354150E-8
	-45.008842	1.506055E-8
	-44.507378	1.354141E-8
	-44.008694	1.455410E-8
	-43.507023	1.252852E-8
	-43.008617	1.202184E-8
	-42.510300	1.252852E-8
	-42.008698	1.202213E-8
	-41.510300	1.202207E-8
	-41.008438	1.404774E-8
	-40.510044	1.455416E-8
	-40.008415	1.556708E-8
	-39.510216	1.404788E-8
	-39.008194	1.607344E-8
	-38.509277	1.202193E-8
	-38.010670	1.202221E-8
	-37.508839	1.404774E-8
	-37.010315	1.404774E-8
	-36.508160	1.455416E-8
	-36.009521	1.404803E-8
	-35.507263	1.100926E-8
	-35.008732	1.303496E-8
	-34.506832	2.012467E-8
	-34.008076	1.455416E-8
	-33.506092	1.354141E-8
	-33.007683	1.252852E-8
	-32.509037	9.996285E-9
	-32.007126	1.455410E-8
	-31.508392	1.506061E-8
	-31.006687	1.354127E-8
	-30.507788	1.354132E-8
	-30.005632	1.759273E-8
	-29.506926	1.100904E-8
	-29.005020	1.506046E-8
	-28.506483	1.252857E-8
	-28.004339	1.202199E-8
	-27.505526	1.252852E-8
	-27.006901	1.860539E-8
	-26.504772	1.809909E-8
	-26.006376	1.202190E-8
	-25.504671	1.202193E-8
	-25.006329	1.404786E-8
	-24.504492	1.556694E-8
	-24.006186	1.556691E-8
	-23.504648	1.455408E-8
	-23.006136	1.252852E-8
	-22.507771	1.657983E-8
	-22.005819	1.354132E-8
	-21.507462	1.404766E-8
	-21.005915	1.759281E-8
	-20.507566	1.100915E-8
	-20.005989	1.252857E-8
	-19.507748	1.303482E-8
	-19.006174	1.303482E-8
	-18.507881	1.252852E-8
	-18.006237	1.303474E-8
	-17.508078	7.464223E-9
	-17.009453	1.100926E-8
	-16.507597	1.202216E-8
	-16.009207	7.970471E-9
	-15.507441	1.100926E-8
	-15.009184	1.151568E-8
	-14.507527	1.354132E-8
	-14.008868	1.303491E-8
	-13.507195	1.303505E-8
	-13.008654	1.657983E-8
	-12.507379	1.252843E-8
	-12.008677	1.050270E-8
	-11.510019	1.202201E-8
	-11.007697	1.607350E-8
	-10.509128	1.354132E-8
	-10.006994	1.050279E-8
	-9.508353	1.050273E-8
	-9.006474	9.489952E-9
	-8.507335	1.354155E-8
	-8.005440	1.151560E-8
	-7.506762	1.100932E-8
	-7.008122	8.983591E-9
	-6.506110	8.477144E-9
	-6.007185	8.477002E-9
	-5.505580	1.050279E-8
	-5.007031	7.464223E-9
	-4.505031	9.996342E-9
	-4.006515	8.477230E-9
	-3.504481	8.477002E-9
	-3.005449	9.489980E-9
	-2.503346	1.050279E-8
	-2.004808	9.489980E-9
	-1.506138	8.477201E-9
	-1.003844	1.202216E-8
	-0.505336	1.202207E-8
	-0.003000	7.970527E-9
	0.497076	1.708636E-8
	0.995558	1.556708E-8
	1.497736	1.151548E-8
	1.996381	1.556708E-8
	2.495078	1.759309E-8
	2.997012	1.759278E-8
	3.495808	1.759273E-8
	3.997743	1.809912E-8
	4.496579	1.607336E-8
	4.998657	1.860553E-8
	5.497263	2.215060E-8
	5.999156	1.860553E-8
	6.497223	2.063118E-8
	6.999485	2.113774E-8
	7.498361	2.164404E-8
	7.996718	2.012459E-8
	8.498725	2.569524E-8
	8.997382	2.620177E-8
	9.499449	2.417610E-8
	9.998458	2.569539E-8
	10.500426	3.227888E-8
	10.999019	2.772106E-8
	11.500910	2.873378E-8
	11.999554	2.468241E-8
	12.498493	2.670808E-8
	13.000023	2.366960E-8
	13.498544	2.772123E-8
	14.000099	2.924025E-8
	14.498382	2.569541E-8
	15.000293	2.924020E-8
	15.498590	2.721447E-8
	16.000229	2.721464E-8
	16.498545	2.670814E-8
	17.000347	2.974656E-8
	17.498537	2.569502E-8
	17.997093	3.025309E-8
	18.498859	2.822730E-8
	18.997091	2.772089E-8
	19.498692	3.177223E-8
	19.996410	3.075957E-8
	20.498480	3.481091E-8
	20.996843	3.379768E-8
	21.498365	3.481080E-8
	21.996786	3.632999E-8
	22.494940	3.784919E-8
	22.996569	3.481080E-8
	23.495323	3.632999E-8
	23.996859	3.430426E-8
	24.495234	3.379790E-8
	24.996712	3.531716E-8
	25.495085	3.481074E-8
	25.996964	3.278501E-8
	26.495317	3.379773E-8
	26.994127	3.632999E-8
	27.496109	3.582352E-8
	27.994751	3.835572E-8
	28.496586	3.734277E-8
	28.995586	3.683635E-8
	29.497589	3.936873E-8
	29.995998	3.379762E-8
	30.498171	3.936844E-8
	30.996817	4.088770E-8
	31.498835	4.240701E-8
	31.997595	4.595216E-8
	32.496193	4.392621E-8
	32.998104	4.797766E-8
	33.496162	4.747119E-8
	33.998096	4.544523E-8
	34.497234	4.443268E-8
	34.998917	4.493904E-8
	35.497673	4.949686E-8
	35.999535	4.899039E-8
	36.498062	5.050970E-8
	36.997158	5.202872E-8
	37.499165	4.949680E-8
	37.997795	4.899044E-8
	38.499584	5.050970E-8
	38.998222	5.354815E-8
	39.500309	5.405462E-8
	39.998661	5.456099E-8
	40.500366	5.456081E-8
	40.998669	5.608013E-8
	41.500340	5.456099E-8
	41.998505	5.506718E-8
	42.497112	5.405417E-8
	42.998844	5.506723E-8
	43.497288	5.557376E-8
	43.998852	5.709285E-8
	44.497158	5.709302E-8
	44.998943	5.759949E-8
	45.497349	6.114431E-8
	45.998905	5.962505E-8
	46.497250	5.911852E-8
	46.995037	6.063772E-8
	47.496620	6.013141E-8
	47.995319	6.165118E-8
	48.496742	6.519565E-8
	48.995262	5.911852E-8
	49.496655	6.165067E-8
